Sample	 Source	 Position	 Absorbance	 Fraction.Number
332598	74631	0	0.808987	0
263664	74638	0.04	1.284406	-100
58449	74604	0.07	4.36598	-100
62170	74638	0.11	4.24063	-100
59864	74606	0.15	4.31709	-100
58248	74608	0.19	4.373138	-100
57202	74639	0.23	4.411065	-100
56341	74648	0.27	4.442344	-100
54791	74636	0.3	4.499094	-100
53793	74627	0.35	4.53646	-100
52934	74605	0.39	4.568794	-100
53147	74620	0.42	4.560989	-100
52463	74593	0.46	4.586753	-100
52521	74573	0.5	4.583943	-100
52501	74589	0.54	4.585161	-100
52578	74613	0.58	4.582821	-100
52425	74548	0.62	4.587001	-100
52332	74571	0.66	4.591265	-100
52413	74604	0.7	4.589005	-100
52230	74635	0.74	4.597012	-100
52102	74663	0.78	4.6028	-100
51893	74646	0.82	4.610558	-100
51827	74695	0.86	4.614505	-100
51812	74686	0.89	4.614851	-100
51518	74626	0.93	4.62485	-100
51294	74610	0.97	4.633327	-100
51281	74754	1.01	4.637791	-100
51255	74766	1.05	4.639157	-100
51074	74755	1.09	4.646094	-100
50850	74616	1.13	4.651279	-100
50678	74634	1.17	4.658706	-100
50565	74623	1.21	4.662972	-100
50464	74620	1.25	4.66698	-100
50240	74624	1.29	4.676192	-100
50057	74640	1.33	4.684098	-100
49807	74641	1.37	4.69437	-100
49556	74648	1.4	4.704899	-100
49150	74639	1.44	4.721484	-100
48838	74636	1.48	4.734432	-100
48477	74613	1.52	4.748982	-100
48153	74648	1.56	4.763663	-100
47931	74671	1.6	4.773748	-100
47628	74629	1.64	4.785573	-100
47409	74680	1.68	4.796401	-100
47082	74621	1.72	4.808945	-100
46796	74629	1.76	4.821632	-100
46494	74628	1.79	4.834852	-100
46262	74619	1.84	4.84484	-100
45994	74616	1.87	4.856646	-100
45808	74624	1.91	4.865156	-100
45621	74631	1.95	4.873718	-100
45455	74624	1.99	4.880985	-100
45280	74610	2.03	4.888494	-100
45138	74643	2.07	4.895825	-100
45002	74658	2.11	4.902411	-100
44978	74685	2.15	4.904242	-100
44890	74654	2.18	4.9074	-100
44841	74631	2.22	4.909004	-100
44877	74636	2.27	4.907499	-100
44909	74641	2.31	4.906177	-100
44896	74622	2.34	4.906249	-100
44981	74644	2.38	4.902982	-100
45028	74614	2.42	4.900022	-100
45139	74646	2.46	4.895862	-100
45379	74659	2.5	4.885368	-100
45573	74636	2.54	4.876009	-100
45699	74623	2.58	4.870003	-100
45883	74651	2.62	4.862549	-100
46185	74653	2.66	4.849181	-100
46483	74639	2.7	4.835637	-100
46798	74632	2.74	4.821626	-100
47138	74645	2.77	4.807171	-100
47509	74626	2.81	4.790609	-100
47955	74639	2.85	4.771847	-100
48386	74623	2.89	4.753101	-100
48838	74626	2.93	4.734158	-100
49312	74622	2.97	4.714285	-100
49785	74644	3.01	4.695356	-100
50336	74615	3.05	4.67204	-100
50930	74625	3.09	4.64831	-100
51581	74660	3.13	4.623281	-100
52188	74723	3.17	4.601069	-100
52789	74732	3.21	4.577887	-100
53484	74761	3.25	4.551918	-100
54191	74723	3.28	4.524008	-100
54820	74731	3.32	4.500614	-100
55624	74723	3.36	4.470605	-100
56325	74698	3.4	4.444295	-100
57137	74691	3.44	4.414817	-100
57976	74702	3.48	4.385291	-100
58867	74721	3.52	4.354605	-100
59813	74706	3.56	4.321575	-100
60846	74726	3.6	4.287087	-100
61930	74761	3.63	4.251913	-100
62938	74718	3.68	4.217701	-100
63974	74701	3.71	4.183829	-100
65067	74705	3.75	4.149276	-100
66074	74716	3.79	4.118154	-100
67204	74699	3.83	4.082991	-100
68524	74713	3.87	4.043575	-100
69814	74727	3.91	4.005798	-100
71084	74759	3.95	3.969787	-100
72393	74731	3.99	3.931685	-100
73824	74757	4.03	3.892345	-100
75351	74764	4.07	3.850646	-100
76705	74741	4.11	3.813576	-100
78169	74750	4.14	3.775138	-100
79590	74727	4.18	3.737647	-100
81010	74706	4.22	3.700888	-100
82702	74717	4.26	3.658894	-100
84481	74708	4.3	3.615101	-100
86354	74718	4.34	3.570506	-100
88146	74750	4.38	3.529357	-100
89678	74746	4.42	3.493991	-100
91316	74736	4.46	3.456681	-100
92857	74734	4.5	3.422386	-100
94449	74707	4.53	3.386864	-100
96419	74740	4.58	3.345529	-100
98285	74719	4.62	3.305734	-100
100006	74723	4.66	3.270326	-100
101621	74729	4.69	3.237711	-100
103068	74695	4.73	3.207851	-100
105220	74718	4.77	3.166199	-100
107364	74784	4.81	3.126732	-100
109099	74785	4.85	3.093959	-100
110904	74733	4.89	3.058961	-100
112918	74743	4.93	3.022411	-100
115343	74743	4.97	2.978934	-100
117663	74760	5.01	2.938653	-100
119560	74747	5.05	2.905572	-100
121706	74738	5.09	2.868925	-100
124150	74724	5.12	2.827861	-100
127004	74745	5.16	2.781932	-100
129475	74711	5.2	2.741574	-100
131573	74725	5.24	2.709068	-100
133769	74700	5.28	2.674515	-100
136494	74690	5.32	2.632979	-100
139340	74686	5.36	2.590645	-100
142117	74746	5.4	2.551911	-100
144179	74730	5.44	2.521999	-100
146767	74711	5.47	2.485077	-100
149789	74712	5.51	2.443402	-100
152440	74702	5.56	2.407232	-100
154767	74714	5.59	2.376563	-100
156918	74697	5.63	2.347855	-100
159778	74715	5.67	2.311392	-100
162555	74751	5.71	2.277121	-100
165106	74730	5.75	2.244685	-100
167572	74746	5.79	2.214789	-100
169990	74726	5.83	2.184928	-100
173407	74704	5.87	2.143604	-100
176478	74710	5.91	2.107849	-100
180301	74732	5.95	2.064601	-100
183167	74778	5.99	2.033591	-100
185595	74722	6.03	2.005114	-100
188722	74721	6.06	1.9709	-100
192337	74732	6.1	1.932378	-100
196058	74730	6.14	1.893117	-100
198806	74741	6.18	1.864938	-100
201473	74766	6.22	1.838356	-100
204377	74731	6.26	1.808117	-100
207397	74734	6.3	1.778185	-100
210593	74741	6.34	1.747087	-100
213280	74712	6.38	1.720351	-100
215826	74727	6.42	1.696481	-100
219189	74715	6.46	1.664516	-100
222042	74703	6.5	1.637727	-100
225043	74728	6.53	1.610943	1
227437	74737	6.57	1.589538	-100
229852	74758	6.61	1.568501	-100
232613	74789	6.65	1.544917	-100
235363	74751	6.69	1.51983	-100
238068	74761	6.73	1.496722	-100
240776	74789	6.77	1.474345	-100
243059	74734	6.81	1.453531	-100
246055	74749	6.85	1.428875	-100
249725	74718	6.89	1.397733	-100
252788	74715	6.92	1.372707	-100
255388	74691	6.96	1.351112	-100
257866	74724	7.01	1.332258	-100
260566	74730	7.04	1.31111	-100
263714	74743	7.08	1.286894	-100
266725	74733	7.12	1.263391	-100
268482	74726	7.16	1.249765	-100
270652	74710	7.2	1.232856	-100
273285	74720	7.24	1.213321	-100
275452	74742	7.28	1.197763	-100
278462	74782	7.32	1.17662	-100
279973	74740	7.36	1.164398	-100
282180	74742	7.39	1.148386	-100
285051	74767	7.43	1.128358	-100
287278	74753	7.47	1.112051	-100
289468	74735	7.51	1.09602	-100
291147	74745	7.55	1.08446	-100
293051	74737	7.59	1.070903	-100
295463	74725	7.63	1.053803	-100
297381	74708	7.67	1.040098	-100
298852	74709	7.71	1.030029	-100
300451	74720	7.75	1.019412	-100
303238	74741	7.79	1.001095	-100
305655	74747	7.83	0.985015	-100
307632	74757	7.87	0.972097	-100
308967	74722	7.91	0.962279	-100
311077	74721	7.95	0.948325	-100
314623	74783	7.98	0.92683	-100
316942	74737	8.02	0.910546	-100
318843	74713	8.07	0.897653	-100
321924	74721	8.11	0.878195	-100
324750	74704	8.15	0.859846	-100
328144	74726	8.19	0.839175	-100
329960	74765	8.23	0.828951	-100
331119	74734	8.27	0.820928	-100
333201	74751	8.31	0.808568	-100
335330	74707	8.35	0.794331	-100
338492	74729	8.39	0.77573	-100
339870	74731	8.42	0.767472	-100
341365	74759	8.47	0.759258	-100
344120	74752	8.5	0.742619	-100
346195	74737	8.54	0.729908	-100
348155	74747	8.58	0.71863	-100
349481	74769	8.62	0.711454	-100
351453	74763	8.66	0.699777	-100
353777	74709	8.7	0.684813	-100
355564	74722	8.74	0.67486	-100
358217	74758	8.78	0.660635	-100
360474	74798	8.82	0.648879	-100
361947	74757	8.86	0.639413	-100
364700	74771	8.89	0.624292	-100
367171	74744	8.93	0.609736	-100
369732	74744	8.97	0.595514	-100
371702	74751	9.01	0.584833	-100
372806	74765	9.05	0.579148	-100
374582	74750	9.09	0.569013	-100
376892	74754	9.13	0.556543	-100
378777	74729	9.17	0.545651	-100
380420	74687	9.21	0.535644	-100
381540	74708	9.25	0.530205	-100
383648	74748	9.29	0.520026	-100
386022	74769	9.33	0.507979	-100
387868	74794	9.36	0.498901	-100
388772	74768	9.4	0.493427	-100
390226	74798	9.44	0.486609	-100
391348	74762	9.48	0.47975	-100
392886	74763	9.52	0.471752	-100
393758	74740	9.56	0.466586	-100
394467	74715	9.6	0.46222	-100
395962	74721	9.64	0.454645	-100
397419	74710	9.68	0.446828	-100
399693	74759	9.72	0.436496	-100
401273	74743	9.76	0.427985	-100
402329	74745	9.8	0.422662	-100
403674	74742	9.84	0.415751	-100
405291	74731	9.88	0.407271	-100
407147	74750	9.91	0.398442	-100
408692	74737	9.95	0.390337	-100
409096	74743	9.99	0.388479	-100
409730	74714	10.03	0.384517	-100
411096	74718	10.07	0.377816	-100
410851	74698	10.11	0.378488	-100
413132	74788	10.15	0.369623	-100
411952	74738	10.19	0.374108	-100
412956	74752	10.23	0.36951	-100
414174	74720	10.27	0.362608	-100
415491	74742	10.3	0.356714	-100
416410	74720	10.34	0.351591	-100
416944	74718	10.38	0.348914	-100
417635	74702	10.42	0.345088	-100
418810	74689	10.46	0.338983	-100
419469	74690	10.5	0.335794	-100
419577	74690	10.54	0.335267	-100
421286	74719	10.58	0.327744	-100
422762	74743	10.62	0.321245	-100
423549	74720	10.66	0.31681	-100
424843	74768	10.7	0.311882	-100
425354	74726	10.74	0.308273	-100
426414	74700	10.78	0.302468	-100
427823	74695	10.81	0.295582	-100
428822	74730	10.85	0.291768	-100
429427	74755	10.89	0.289567	-100
430237	74719	10.93	0.284726	-100
431660	74704	10.97	0.277559	-100
432482	74716	11.01	0.273995	-100
432785	74742	11.05	0.273274	-100
433265	74686	11.09	0.269472	-100
434225	74728	11.13	0.266094	-100
435611	74740	11.17	0.259902	-100
436339	74723	11.2	0.25602	-100
436881	74733	11.25	0.253754	-100
437284	74718	11.28	0.251456	-100
438519	74721	11.32	0.245768	-100
439337	74704	11.36	0.241489	-100
439788	74690	11.4	0.239006	-100
440052	74699	11.44	0.238025	-100
440560	74674	11.48	0.234979	-100
441553	74698	11.52	0.23103	-100
442182	74694	11.56	0.228008	-100
443280	74718	11.6	0.223591	-100
444090	74727	11.64	0.220102	-100
444496	74718	11.68	0.217986	-100
445004	74738	11.71	0.216196	-100
445572	74707	11.75	0.212737	-100
446566	74691	11.79	0.20774	-100
447339	74711	11.83	0.204749	-100
447568	74735	11.87	0.204359	-100
448021	74720	11.91	0.201878	-100
448912	74744	11.95	0.19847	-100
449564	74740	11.99	0.195391	-100
449937	74729	12.03	0.193393	-100
449263	74717	12.07	0.196132	-100
449639	74716	12.11	0.194393	-100
450528	74696	12.14	0.189803	-100
451296	74706	12.18	0.186592	-100
450719	74670	12.22	0.188224	-100
451174	74687	12.26	0.186625	-100
452101	74771	12.3	0.184725	-100
451811	74714	12.34	0.184478	-100
451889	74695	12.38	0.183604	-100
451673	74699	12.42	0.184692	-100
451324	74684	12.46	0.185863	-100
452046	74713	12.5	0.183386	-100
452407	74704	12.54	0.181507	-100
452429	74727	12.57	0.182037	-100
452148	74714	12.61	0.182952	-100
451965	74744	12.65	0.184602	-100
451594	74711	12.7	0.185379	-100
451708	74721	12.73	0.185136	-100
451406	74710	12.77	0.186203	-100
450722	74696	12.81	0.188922	-100
450286	74716	12.85	0.19145	-100
450092	74696	12.89	0.191784	-100
450211	74726	12.93	0.192065	-100
449295	74700	12.97	0.19552	-100
448695	74706	13.01	0.198419	-100
447607	74682	13.05	0.202729	-100
447822	74680	13.08	0.201692	2
447930	74729	13.12	0.20254	-100
446654	74706	13.16	0.207747	-100
446347	74713	13.2	0.209346	-100
445976	74713	13.24	0.211047	-100
445423	74713	13.28	0.213586	-100
445389	74731	13.32	0.214235	-100
444368	74730	13.36	0.218904	-100
443533	74726	13.4	0.222642	-100
443600	74721	13.44	0.222196	-100
443396	74710	13.47	0.222836	-100
443092	74704	13.51	0.224075	-100
442263	74723	13.55	0.228427	-100
441779	74731	13.59	0.230887	-100
441641	74717	13.63	0.231143	-100
441307	74689	13.67	0.231924	-100
440672	74731	13.71	0.23602	-100
439850	74734	13.75	0.239923	-100
440041	74725	13.79	0.238788	-100
440545	74757	13.83	0.237322	-100
439883	74743	13.87	0.240016	-100
439304	74741	13.91	0.242656	-100
438880	74727	13.95	0.244248	-100
438861	74759	13.98	0.245213	-100
438857	74716	14.02	0.244054	-100
438704	74728	14.06	0.245097	-100
438108	74691	14.11	0.246865	-100
438247	74703	14.14	0.246544	-100
438789	74744	14.18	0.245138	-100
438388	74689	14.22	0.245503	-100
438593	74751	14.26	0.246244	-100
438316	74739	14.3	0.247208	-100
438325	74742	14.34	0.247248	-100
438501	74728	14.38	0.246044	-100
438796	74745	14.42	0.245133	-100
438682	74717	14.46	0.244898	-100
439197	74746	14.5	0.243291	-100
438962	74729	14.54	0.243921	-100
439169	74722	14.57	0.242765	-100
439613	74781	14.62	0.242312	-100
439513	74744	14.66	0.241765	-100
439561	74720	14.7	0.240884	-100
439840	74744	14.74	0.240243	-100
440657	74763	14.78	0.236966	-100
440767	74741	14.82	0.235853	-100
440689	74734	14.86	0.236024	-100
440922	74751	14.9	0.235408	-100
440874	74711	14.93	0.234535	-100
441551	74708	14.98	0.231313	-100
442370	74737	15.02	0.228316	-100
442484	74701	15.06	0.226803	-100
443014	74714	15.09	0.224709	-100
443706	74709	15.13	0.221379	-100
444420	74747	15.17	0.21913	-100
444647	74719	15.21	0.217318	-100
444817	74737	15.25	0.217029	-100
445126	74722	15.29	0.215197	-100
445308	74690	15.33	0.213484	-100
445949	74702	15.37	0.21087	-100
446552	74688	15.41	0.207722	-100
447495	74718	15.45	0.204227	-100
447659	74719	15.49	0.203505	-100
447920	74711	15.52	0.202093	-100
448317	74670	15.56	0.199157	-100
449214	74689	15.6	0.195588	-100
449469	74702	15.64	0.194783	-100
449657	74682	15.68	0.193379	-100
450356	74673	15.72	0.189954	-100
451257	74705	15.76	0.186742	-100
452054	74726	15.8	0.183706	-100
452248	74714	15.84	0.1825	-100
452641	74739	15.88	0.181407	-100
452978	74706	15.92	0.17898	-100
453855	74718	15.96	0.175351	-100
454495	74718	15.99	0.172468	-100
454954	74707	16.03	0.170102	-100
455493	74687	16.07	0.167131	-100
456092	74724	16.11	0.165456	-100
456958	74741	16.15	0.16204	-100
457987	74753	16.19	0.157766	-100
457865	74746	16.23	0.158119	-100
458089	74710	16.27	0.156133	-100
458977	74728	16.31	0.152663	-100
459766	74716	16.35	0.14882	-100
459856	74693	16.39	0.14779	-100
460502	74704	16.42	0.145219	-100
461010	74707	16.46	0.143045	-100
461333	74691	16.5	0.141174	-100
462112	74705	16.54	0.138105	-100
462309	74696	16.58	0.136987	-100
462741	74718	16.62	0.135678	-100
463419	74726	16.66	0.132901	-100
463851	74709	16.7	0.130529	-100
464371	74686	16.74	0.127607	-100
464460	74689	16.78	0.127297	-100
465096	74738	16.82	0.125839	-100
465541	74735	16.86	0.1238	-100
466095	74718	16.9	0.120901	-100
466741	74763	16.94	0.119299	-100
466478	74714	16.97	0.119111	-100
466914	74702	17.01	0.116871	-100
467839	74714	17.05	0.11315	-100
467941	74670	17.09	0.111498	-100
468103	74677	17.13	0.110982	-100
468450	74697	17.17	0.110014	-100
469303	74748	17.21	0.107688	-100
469731	74750	17.25	0.105877	-100
469829	74738	17.29	0.105122	-100
470024	74731	17.33	0.104081	-100
470469	74751	17.37	0.102693	-100
470719	74736	17.41	0.101195	-100
470883	74712	17.45	0.099825	-100
471261	74734	17.48	0.098786	-100
471195	74715	17.52	0.098552	-100
471453	74726	17.56	0.097733	-100
471713	74772	17.6	0.097864	-100
472406	74765	17.64	0.094669	-100
472473	74736	17.68	0.093585	-100
472439	74735	17.72	0.093705	-100
472537	74740	17.76	0.093417	-100
472667	74734	17.8	0.09269	-100
473135	74738	17.84	0.090775	-100
473320	74735	17.88	0.089893	-100
473397	74748	17.91	0.089916	-100
473736	74740	17.95	0.088232	-100
474003	74747	17.99	0.087271	-100
474130	74785	18.03	0.087763	-100
474228	74752	18.07	0.086437	-100
474221	74752	18.11	0.086467	-100
474507	74767	18.15	0.085644	-100
474460	74751	18.19	0.085409	-100
474732	74754	18.23	0.084318	-100
474871	74758	18.27	0.083829	-100
475008	74752	18.31	0.083074	-100
474692	74738	18.34	0.084053	-100
475026	74762	18.38	0.08327	-100
474851	74716	18.42	0.082765	-100
475451	74743	18.46	0.08092	-100
475239	74759	18.5	0.082271	-100
475122	74753	18.54	0.082611	-100
475257	74744	18.58	0.081783	-100
475180	74748	18.62	0.082224	-100
475046	74786	18.66	0.083841	-100
474182	74724	18.7	0.085869	-100
473891	74721	18.74	0.087043	-100
474096	74752	18.78	0.087006	-100
473731	74722	18.82	0.087761	-100
473619	74742	18.85	0.088792	-100
473387	74775	18.89	0.090698	-100
472984	74762	18.93	0.092085	-100
472592	74767	18.97	0.093918	-100
472319	74758	19.01	0.094854	-100
471778	74773	19.05	0.09761	-100
470708	74738	19.09	0.101298	-100
470281	74781	19.13	0.104331	-100
469672	74792	19.17	0.107284	-100
468925	74800	19.21	0.110759	-100
467762	74787	19.25	0.115485	-100
466559	74747	19.29	0.119659	-100
465579	74741	19.33	0.123797	-100
464936	74778	19.36	0.127638	-100
463762	74760	19.4	0.132318	-100
462125	74763	19.44	0.139635	-100
460854	74771	19.48	0.14549	-100
459809	74771	19.52	0.150135	-100
458884	74770	19.56	0.154228	-100
457547	74760	19.6	0.159924	3
456012	74764	19.64	0.166909	-100
454572	74736	19.68	0.172614	-100
453381	74741	19.72	0.178119	-100
452415	74778	19.76	0.183496	-100
451208	74774	19.79	0.188853	-100
449599	74767	19.83	0.195971	-100
448578	74744	19.87	0.199993	-100
447740	74742	19.91	0.203764	-100
446513	74741	19.95	0.209352	-100
445271	74765	19.99	0.215708	-100
444646	74786	20.03	0.219157	-100
443686	74779	20.07	0.223387	-100
442733	74764	20.11	0.227377	-100
441955	74791	20.15	0.231714	-100
441308	74789	20.19	0.234657	-100
440263	74750	20.23	0.238441	-100
439695	74807	20.27	0.242642	-100
438492	74771	20.3	0.247263	-100
438204	74757	20.34	0.248224	-100
437580	74757	20.38	0.251139	-100
437067	74756	20.42	0.253512	-100
436464	74771	20.46	0.256748	-100
436299	74769	20.5	0.257467	-100
436123	74782	20.54	0.258648	-100
435588	74784	20.58	0.261214	-100
435237	74778	20.62	0.262699	-100
434897	74766	20.66	0.26397	-100
434808	74774	20.7	0.264608	-100
434725	74751	20.74	0.264369	-100
434692	74774	20.77	0.265154	-100
434820	74771	20.81	0.264469	-100
434638	74753	20.85	0.264833	-100
434681	74767	20.89	0.265014	-100
434901	74775	20.93	0.264197	-100
434885	74765	20.97	0.263999	-100
435039	74773	21.01	0.263494	-100
435149	74757	21.05	0.262538	-100
435443	74767	21.09	0.26143	-100
435741	74790	21.13	0.26066	-100
436038	74778	21.17	0.258937	-100
436128	74750	21.21	0.257749	-100
436591	74757	21.25	0.255769	-100
436931	74766	21.29	0.254423	-100
437073	74741	21.33	0.253074	-100
437471	74748	21.37	0.251403	-100
437871	74752	21.41	0.249642	-100
438553	74741	21.45	0.246157	-100
439200	74758	21.49	0.243606	-100
439311	74729	21.53	0.242295	-100
440015	74750	21.56	0.239593	-100
440503	74744	21.6	0.237161	-100
441363	74748	21.64	0.23328	-100
441714	74716	21.68	0.230777	-100
442388	74747	21.72	0.228506	-100
442760	74785	21.76	0.227826	-100
443675	74749	21.8	0.222617	-100
444099	74743	21.84	0.220498	-100
444781	74772	21.88	0.218152	-100
445550	74775	21.92	0.2147	-100
446029	74757	21.96	0.212009	-100
446882	74769	22	0.208428	-100
447453	74779	22.04	0.206089	-100
447852	74757	22.07	0.203663	-100
448413	74734	22.11	0.200472	-100
449385	74774	22.15	0.197136	-100
449966	74745	22.19	0.193699	-100
450677	74759	22.23	0.190852	-100
451273	74776	22.27	0.188613	-100
452007	74788	22.31	0.185616	-100
452753	74776	22.35	0.181913	-100
453361	74786	22.39	0.179441	-100
453844	74760	22.43	0.176551	-100
454447	74754	22.47	0.17367	-100
455024	74753	22.51	0.171046	-100
456201	74791	22.55	0.1668	-100
456412	74780	22.58	0.165553	-100
456896	74753	22.62	0.162646	-100
457737	74755	22.66	0.158938	-100
457957	74720	22.7	0.156996	-100
458773	74725	22.74	0.153491	-100
459595	74763	22.78	0.150868	-100
459983	74760	22.82	0.149059	-100
460865	74788	22.86	0.145906	-100
461337	74767	22.9	0.143237	-100
462087	74764	22.94	0.139831	-100
462385	74767	22.98	0.138594	-100
462711	74775	23.02	0.137371	-100
463247	74766	23.05	0.134756	-100
463803	74755	23.09	0.132	-100
464420	74762	23.13	0.129472	-100
464820	74762	23.17	0.12771	-100
465135	74761	23.21	0.126297	-100
465574	74790	23.25	0.12516	-100
465800	74771	23.29	0.123647	-100
466145	74742	23.33	0.121339	-100
466627	74748	23.37	0.119388	-100
466832	74726	23.41	0.117887	-100
466908	74735	23.45	0.117801	-100
467281	74745	23.49	0.11644	-100
467671	74789	23.52	0.115938	-100
467480	74797	23.56	0.116992	-100
467497	74776	23.6	0.116343	-100
466683	74753	23.64	0.11928	-100
466720	74774	23.68	0.119692	-100
466038	74770	23.72	0.122575	-100
464987	74765	23.76	0.127057	-100
463550	74731	23.8	0.13246	-100
461690	74727	23.84	0.140577	-100
459500	74738	23.88	0.150607	-100
456795	74760	23.92	0.16329	-100
453257	74744	23.95	0.178761	-100
449592	74773	23.99	0.196167	-100
444488	74756	24.03	0.219063	-100
438814	74752	24.07	0.245241	-100
432510	74778	24.11	0.27556	-100
425582	74786	24.15	0.308819	-100
417575	74766	24.19	0.347134	-100
408569	74745	24.23	0.391171	-100
398387	74757	24.27	0.443137	-100
388732	74773	24.31	0.493774	-100
378640	74755	24.35	0.547103	-100
368042	74736	24.38	0.604669	-100
356949	74762	24.42	0.668	-100
344700	74756	24.46	0.739283	-100
333420	74782	24.5	0.808072	-100
322525	74772	24.54	0.875775	-100
311893	74776	24.58	0.944471	-100
301101	74740	24.62	1.015538	-100
290891	74752	24.66	1.086451	-100
282422	74746	24.7	1.146742	-100
273515	74741	24.74	1.212174	-100
264371	74753	24.77	1.282077	-100
256699	74784	24.81	1.343181	-100
248828	74805	24.86	1.407477	-100
242458	74777	24.9	1.459773	-100
236691	74755	24.93	1.508427	-100
229663	74755	24.97	1.570102	-100
223492	74758	25.01	1.625915	-100
218839	74738	25.05	1.668416	-100
214501	74726	25.09	1.709054	-100
210051	74729	25.13	1.752031	-100
205701	74766	25.17	1.795862	-100
201589	74736	25.21	1.836358	-100
198607	74748	25.25	1.867179	-100
196366	74777	25.29	1.891192	-100
193937	74751	25.33	1.915948	-100
190819	74748	25.37	1.949029	-100
188242	74743	25.4	1.976713	-100
186737	74735	25.44	1.992918	-100
185447	74704	25.48	2.006253	-100
183567	74730	25.52	2.027814	-100
181779	74759	25.56	2.048635	-100
180620	74761	25.6	2.061777	-100
180352	74785	25.64	2.065472	-100
179963	74760	25.68	2.069206	-100
179086	74740	25.72	2.078654	-100
178270	74736	25.76	2.087889	-100
177874	74757	25.8	2.093014	-100
177876	74752	25.83	2.092854	-100
178288	74716	25.87	2.087135	-100
178473	74753	25.91	2.086026	-100
178422	74752	25.95	2.086583	-100
178712	74740	25.99	2.082932	-100
179415	74741	26.03	2.074926	-100
180312	74733	26.07	2.064503	-100
181543	74759	26.11	2.051293	4
182041	74731	26.15	2.044922	-100
183250	74704	26.19	2.030638	-100
184533	74754	26.23	2.017732	-100
185769	74749	26.27	2.003936	-100
187372	74804	26.31	1.987861	-100
188636	74776	26.34	1.973338	-100
190260	74786	26.38	1.956072	-100
191834	74741	26.42	1.937983	-100
193545	74760	26.46	1.920334	-100
195493	74743	26.5	1.899378	-100
197627	74782	26.54	1.878231	-100
199494	74756	26.58	1.85828	-100
201316	74772	26.62	1.840116	-100
203444	74787	26.66	1.819011	-100
205734	74741	26.69	1.79485	-100
207958	74740	26.74	1.772822	-100
210247	74793	26.77	1.751874	-100
212510	74778	26.81	1.729558	-100
214859	74755	26.85	1.706436	-100
217710	74777	26.89	1.680067	-100
220418	74764	26.93	1.654417	-100
222983	74723	26.97	1.629622	-100
225712	74776	27.01	1.606183	-100
228294	74796	27.05	1.583457	-100
231051	74791	27.09	1.558758	-100
234209	74778	27.13	1.530626	-100
236918	74770	27.17	1.506876	-100
239674	74788	27.21	1.483704	-100
242035	74779	27.25	1.463401	-100
244991	74759	27.29	1.438015	-100
248396	74766	27.32	1.409965	-100
251441	74777	27.36	1.385336	-100
254122	74777	27.4	1.363635	-100
256827	74763	27.44	1.341587	-100
260321	74743	27.48	1.313391	-100
263366	74740	27.52	1.289514	-100
265845	74743	27.56	1.270427	-100
269661	74768	27.6	1.241949	-100
272356	74767	27.64	1.221575	-100
275899	74800	27.68	1.196032	-100
279476	74906	27.73	1.172572	-100
281107	74786	27.77	1.157386	-100
283937	74785	27.81	1.136862	-100
287595	74775	27.84	1.110397	-100
290268	74740	27.89	1.09051	-100
292831	74741	27.92	1.07255	-100
295866	74790	27.96	1.052793	-100
298186	74773	28	1.036346	-100
301252	74765	28.04	1.015196	-100
303619	74757	28.08	0.998963	-100
306255	74768	28.12	0.981577	-100
308446	74770	28.16	0.967046	-100
311105	74769	28.2	0.949455	-100
314271	74777	28.23	0.928957	-100
316192	74798	28.27	0.917062	-100
318238	74814	28.31	0.904303	-100
320698	74777	28.35	0.887535	-100
323235	74794	28.39	0.871877	-100
326079	74760	28.43	0.853023	-100
327820	74761	28.47	0.842155	-100
329640	74777	28.51	0.831264	-100
331932	74771	28.55	0.816923	-100
334388	74788	28.59	0.802304	-100
337328	74775	28.63	0.784037	-100
339235	74801	28.67	0.773214	-100
340352	74786	28.71	0.766078	-100
343086	74820	28.75	0.750637	-100
345459	74782	28.78	0.735494	-100
348016	74749	28.82	0.719502	-100
350337	74778	28.86	0.706695	-100
351928	74765	28.9	0.697068	-100
353490	74798	28.94	0.68891	-100
356197	74806	28.98	0.673519	-100
358522	74811	29.02	0.660344	-100
360491	74774	29.06	0.648125	-100
361607	74758	29.1	0.641363	-100
363246	74756	29.14	0.632055	-100
366051	74760	29.18	0.616425	-100
367830	74767	29.22	0.606697	-100
370183	74767	29.25	0.59365	-100
371795	74778	29.29	0.58506	-100
372571	74752	29.33	0.580082	-100
375752	74772	29.37	0.563234	-100
377616	74761	29.41	0.552808	-100
379126	74735	29.45	0.543931	-100
380607	74758	29.49	0.536583	-100
382169	74782	29.53	0.52886	-100
384433	74764	29.57	0.516282	-100
386345	74752	29.61	0.505802	-100
387916	74779	29.65	0.498238	-100
389241	74761	29.68	0.490768	-100
390446	74786	29.72	0.485128	-100
392880	74793	29.77	0.472604	-100
394890	74765	29.81	0.461396	-100
396126	74744	29.84	0.454427	-100
397443	74751	29.88	0.447827	-100
398208	74731	29.92	0.443345	-100
400313	74747	29.96	0.432996	-100
402183	74738	30	0.423213	-100
403095	74736	30.04	0.418524	-100
404123	74723	30.08	0.412957	-100
405380	74725	30.11	0.406657	-100
407207	74794	30.16	0.399345	-100
409025	74784	30.2	0.389956	-100
409937	74772	30.23	0.385071	-100
410236	74776	30.27	0.383689	-100
412036	74765	30.31	0.374429	-100
413514	74785	30.35	0.36765	-100
414523	74769	30.39	0.362226	-100
415339	74773	30.43	0.358312	-100
416305	74784	30.47	0.353859	-100
417617	74762	30.51	0.346819	-100
419308	74769	30.55	0.338742	-100
420132	74785	30.59	0.335163	-100
420183	74784	30.63	0.334887	-100
421526	74820	30.67	0.329343	-100
423090	74793	30.7	0.321027	-100
423623	74744	30.74	0.31711	-100
424603	74737	30.78	0.31219	-100
425628	74759	30.82	0.307859	-100
426494	74755	30.86	0.30359	-100
428229	74757	30.9	0.295338	-100
428855	74772	30.94	0.29276	-100
428882	74754	30.98	0.292139	-100
429939	74769	31.02	0.287513	-100
431146	74764	31.06	0.28164	-100
432204	74730	31.1	0.275694	-100
432691	74739	31.13	0.273636	-100
433178	74735	31.17	0.271225	-100
434181	74764	31.21	0.267287	-100
435101	74789	31.25	0.26364	-100
436942	74891	31.29	0.257789	-100
436782	74819	31.33	0.256571	-100
436933	74723	31.37	0.253236	-100
437452	74718	31.41	0.25067	-100
438511	74742	31.45	0.24638	-100
439791	74757	31.49	0.240827	-100
440647	74764	31.53	0.23704	-100
441110	74756	31.57	0.234672	-100
441606	74804	31.61	0.233686	-100
442639	74812	31.64	0.229124	-100
443618	74834	31.68	0.225205	-100
444616	74817	31.72	0.220143	-100
445011	74812	31.76	0.218189	-100
445126	74811	31.8	0.217633	-100
445980	74797	31.84	0.213328	-100
446541	74804	31.88	0.210947	-100
447540	74902	31.92	0.209054	-100
447766	74863	31.96	0.206955	-100
447940	74816	32	0.204875	-100
448944	74818	32.04	0.200349	-100
449184	74828	32.07	0.199529	-100
449491	74806	32.11	0.197529	-100
449798	74819	32.15	0.196488	-100
449686	74814	32.19	0.196861	-100
450693	74809	32.23	0.192147	-100
451390	74817	32.27	0.189204	-100
451504	74795	32.31	0.188086	-100
451781	74822	32.35	0.187569	-100
451737	74795	32.39	0.18703	-100
452570	74788	32.43	0.183069	-100
453592	74795	32.47	0.178645	-100
453894	74791	32.51	0.177174	-100
454283	74841	32.54	0.176788	-100
454369	74808	32.58	0.175499	-100
455045	74802	32.62	0.172293	5
455814	74811	32.66	0.169084	-100
456080	74793	32.7	0.167398	-100
456215	74785	32.74	0.166573	-100
456182	74812	32.78	0.16746	-100
456794	74830	32.82	0.165209	-100
457048	74815	32.86	0.163662	-100
457569	74825	32.89	0.161604	-100
457657	74807	32.94	0.160718	-100
458019	74831	32.98	0.159757	-100
458268	74813	33.01	0.158152	-100
458559	74792	33.05	0.156279	-100
458672	74790	33.09	0.15572	-100
458584	74801	33.13	0.156414	-100
458897	74810	33.17	0.155264	-100
459066	74776	33.21	0.15358	-100
459257	74806	33.25	0.15355	-100
459140	74790	33.29	0.153634	-100
459064	74781	33.33	0.153726	-100
459870	74767	33.37	0.149754	-100
460753	74799	33.41	0.146704	-100
460576	74786	33.45	0.147135	-100
460147	74790	33.49	0.149151	-100
460448	74782	33.53	0.147594	-100
461017	74778	33.56	0.144958	-100
461275	74799	33.6	0.144387	-100
461067	74773	33.64	0.144599	-100
461092	74776	33.68	0.14457	-100
461806	74785	33.72	0.14165	-100
462318	74827	33.76	0.140532	-100
461995	74807	33.8	0.141415	-100
461443	74814	33.84	0.144053	-100
461474	74793	33.88	0.143341	-100
462046	74826	33.91	0.141709	-100
462587	74801	33.95	0.138631	-100
462138	74796	33.99	0.140481	-100
461651	74774	34.03	0.142036	-100
462004	74822	34.07	0.141785	-100
462133	74776	34.11	0.139956	-100
462000	74769	34.15	0.140353	-100
461591	74776	34.19	0.142357	-100
461107	74758	34.24	0.144011	-100
462073	74793	34.28	0.140687	-100
461806	74774	34.32	0.141349	-100
461854	74757	34.36	0.140672	-100
462089	74792	34.4	0.140588	-100
461675	74810	34.44	0.142915	-100
460996	74752	34.48	0.144339	-100
461176	74749	34.51	0.143458	-100
461452	74800	34.56	0.14363	-100
461264	74803	34.59	0.144546	-100
460701	74785	34.63	0.146552	-100
460332	74787	34.67	0.148246	-100
460862	74823	34.71	0.146877	-100
460174	74793	34.75	0.149113	-100
459760	74805	34.79	0.151283	-100
459240	74810	34.83	0.153735	-100
459059	74806	34.87	0.154432	-100
459422	74799	34.91	0.152623	-100
459152	74782	34.95	0.153361	-100
458683	74785	34.99	0.155534	-100
458527	74767	35.02	0.155738	-100
458194	74791	35.06	0.157881	-100
458599	74863	35.1	0.158042	-100
458411	74887	35.14	0.159537	-100
458307	74949	35.18	0.161694	-100
457388	74836	35.22	0.162714	-100
457066	74801	35.26	0.163198	-100
457362	74788	35.3	0.161518	-100
457387	74781	35.34	0.161214	-100
456981	74798	35.38	0.163496	-100
456389	74791	35.41	0.165957	-100
456278	74797	35.45	0.166619	-100
456281	74782	35.49	0.166195	-100
456382	74795	35.54	0.166098	-100
456164	74819	35.57	0.167732	-100
455904	74830	35.61	0.1692	-100
456686	74947	35.65	0.16889	-100
456460	74930	35.69	0.169438	-100
455751	74850	35.73	0.170433	-100
455479	74823	35.77	0.170916	-100
455107	74771	35.81	0.171166	-100
455365	74775	35.85	0.170116	-100
455710	74801	35.89	0.169277	-100
455760	74783	35.93	0.16856	-100
455673	74800	35.96	0.169416	-100
455588	74782	36	0.169305	-100
455525	74807	36.04	0.170272	-100
455878	74828	36.08	0.169262	-100
455693	74812	36.12	0.169655	-100
455453	74807	36.16	0.170596	-100
455731	74800	36.2	0.169156	-100
456174	74819	36.24	0.167687	-100
456367	74834	36.28	0.167232	-100
456222	74830	36.32	0.167773	-100
456272	74847	36.36	0.168013	-100
456525	74823	36.4	0.166223	-100
456392	74801	36.43	0.166217	-100
455577	74807	36.47	0.170039	-100
456450	74809	36.51	0.166176	-100
456816	74790	36.55	0.164017	-100
457078	74787	36.59	0.162761	-100
457317	74819	36.63	0.162567	-100
457383	74798	36.67	0.161697	-100
457352	74828	36.71	0.162657	-100
457751	74826	36.75	0.160818	-100
457704	74800	36.79	0.160317	-100
458213	74830	36.83	0.158863	-100
458228	74789	36.87	0.157674	-100
458399	74792	36.9	0.156993	-100
458818	74783	36.94	0.154878	-100
458994	74780	36.98	0.154011	-100
459129	74797	37.02	0.153874	-100
459400	74792	37.06	0.15253	-100
459478	74775	37.1	0.151717	-100
459897	74807	37.14	0.150728	-100
460578	74835	37.18	0.148466	-100
460638	74798	37.22	0.147188	-100
461211	74797	37.26	0.144617	-100
461142	74799	37.3	0.144977	-100
461198	74815	37.34	0.145167	-100
461612	74779	37.38	0.142346	-100
461883	74776	37.41	0.141063	-100
462246	74778	37.45	0.13951	-100
462488	74798	37.49	0.138987	-100
454314	74770	37.53	0.174707	-100
462968	74797	37.57	0.136837	-100
462933	74787	37.61	0.136718	-100
463565	74927	37.65	0.137753	-100
464248	74910	37.69	0.134276	-100
464228	74805	37.72	0.131494	-100
464826	74814	37.76	0.129107	-100
465354	74843	37.81	0.127577	-100
465219	74823	37.84	0.127624	-100
465352	74825	37.89	0.127093	-100
465091	74795	37.92	0.127421	-100
465504	74805	37.96	0.125878	-100
465718	74808	38	0.12502	-100
466159	74815	38.04	0.123275	-100
466303	74798	38.08	0.122178	-100
466848	74803	38.12	0.119924	-100
467158	74795	38.16	0.118347	-100
467711	74796	38.2	0.115954	-100
467701	74829	38.24	0.1169	-100
467796	74839	38.28	0.116758	-100
468231	74836	38.32	0.114774	-100
468216	74814	38.35	0.114238	-100
468534	74799	38.39	0.112439	-100
468776	74818	38.43	0.111902	-100
468848	74810	38.47	0.111369	-100
469214	74808	38.51	0.109718	-100
469487	74830	38.55	0.109129	-100
469556	74824	38.59	0.108664	-100
469815	74826	38.63	0.107591	-100
469554	74795	38.67	0.10788	-100
470429	74817	38.71	0.104672	-100
470423	74785	38.74	0.103823	-100
470661	74797	38.78	0.103117	-100
470922	74803	38.82	0.102146	-100
470892	74812	38.86	0.102523	-100
470864	74807	38.9	0.102508	-100
471301	74833	38.94	0.101321	-100
471524	74834	38.98	0.10038	-100
471662	74827	39.02	0.09959	-100
472022	74837	39.06	0.098302	-100
472174	74801	39.1	0.096659	-100
472077	74766	39.14	0.096122	6
472076	74780	39.18	0.096509	-100
472444	74805	39.22	0.095599	-100
472489	74767	39.26	0.094364	-100
472705	74776	39.29	0.093675	-100
473010	74809	39.33	0.093258	-100
473025	74794	39.37	0.092783	-100
473432	74808	39.41	0.091406	-100
473733	74817	39.45	0.090352	-100
473747	74818	39.49	0.090319	-100
473986	74845	39.53	0.090025	-100
473772	74807	39.57	0.08991	-100
474054	74816	39.61	0.088939	-100
474258	74803	39.65	0.087703	-100
474347	74782	39.69	0.086744	-100
474417	74778	39.73	0.086333	-100
474404	74764	39.76	0.086006	-100
474614	74760	39.8	0.084991	-100
474874	74790	39.84	0.084691	-100
475024	74806	39.88	0.084483	-100
475231	74805	39.92	0.083564	-100
475319	74798	39.96	0.082994	-100
475306	74781	40	0.082585	-100
475636	74795	40.04	0.081547	-100
475856	74801	40.08	0.080765	-100
476185	74812	40.12	0.079652	-100
475988	74780	40.16	0.079623	-100
475904	74770	40.2	0.079711	-100
476229	74777	40.23	0.078506	-100
476596	74818	40.27	0.078051	-100
476508	74767	40.31	0.077034	-100
477204	74856	40.35	0.076481	-100
476824	74796	40.39	0.076471	-100
476920	74774	40.43	0.075457	-100
476934	74798	40.47	0.076053	-100
476777	74791	40.51	0.076536	-100
477211	74805	40.55	0.075057	-100
477133	74780	40.58	0.074707	-100
477464	74783	40.63	0.07337	-100
477563	74768	40.67	0.072536	-100
477546	74775	40.71	0.0728	-100
477721	74821	40.75	0.073309	-100
477694	74802	40.79	0.072905	-100
477636	74789	40.83	0.072798	-100
477488	74780	40.87	0.073186	-100
477328	74775	40.91	0.073734	-100
477598	74787	40.95	0.072906	-100
477688	74791	40.99	0.07263	-100
477769	74790	41.03	0.072255	-100
478029	74807	41.07	0.071607	-100
477688	74779	41.11	0.072301	-100
477489	74799	41.15	0.073701	-100
477365	74798	41.18	0.074205	-100
477426	74825	41.22	0.074682	-100
477058	74789	41.26	0.075275	-100
476611	74777	41.3	0.076865	-100
476755	74859	41.34	0.078489	-100
476922	74904	41.38	0.079002	-100
476801	74938	41.42	0.08045	-100
476318	74929	41.46	0.082278	-100
475708	74915	41.5	0.084518	-100
474489	74802	41.54	0.086679	-100
474208	74810	41.57	0.08811	-100
473897	74817	41.61	0.089644	-100
473305	74812	41.65	0.092065	-100
472194	74810	41.69	0.096819	-100
471776	74808	41.73	0.098576	-100
470987	74780	41.77	0.101235	-100
470126	74751	41.81	0.104185	-100
469579	74764	41.85	0.106923	-100
468812	74789	41.89	0.110952	-100
468580	74832	41.93	0.113141	-100
467937	74798	41.97	0.11502	-100
467341	74837	42.01	0.118695	-100
466370	74842	42.05	0.123087	-100
465405	74819	42.08	0.126696	-100
464815	74813	42.13	0.129128	-100
464133	74818	42.16	0.132269	-100
463247	74806	42.2	0.13585	-100
462572	74830	42.24	0.13949	-100
461890	74816	42.28	0.142126	-100
461059	74789	42.32	0.145072	-100
460440	74802	42.36	0.148177	-100
459661	74815	42.4	0.151997	-100
458869	74799	42.44	0.155088	-100
458451	74799	42.48	0.156953	-100
457902	74797	42.51	0.15935	-100
457558	74835	42.56	0.161927	-100
456895	74809	42.59	0.164182	-100
456393	74822	42.63	0.166787	-100
456106	74833	42.67	0.168375	-100
455512	74815	42.71	0.170549	-100
454973	74815	42.75	0.172972	-100
454614	74806	42.79	0.174341	-100
454053	74802	42.83	0.176758	-100
453998	74808	42.87	0.17717	-100
453876	74831	42.91	0.178349	-100
453406	74802	42.95	0.179676	-100
453375	74818	42.98	0.180253	-100
452774	74786	43.02	0.182092	-100
453012	74838	43.07	0.182439	-100
453040	74859	43.1	0.182887	-100
452843	74819	43.14	0.182683	-100
452851	74839	43.18	0.183194	-100
452626	74815	43.22	0.183554	-100
452644	74829	43.26	0.183856	-100
452361	74831	43.3	0.18519	-100
452734	74834	43.34	0.183586	-100
452761	74840	43.38	0.183628	-100
452873	74853	43.42	0.183477	-100
452968	74843	43.46	0.182774	-100
453234	74833	43.49	0.1813	-100
453583	74850	43.54	0.18019	-100
453428	74822	43.57	0.180123	-100
453711	74840	43.61	0.179339	-100
453916	74870	43.65	0.179235	-100
453999	74869	43.69	0.178833	-100
454052	74826	43.73	0.177419	-100
454216	74825	43.77	0.176653	-100
454296	74810	43.81	0.175882	-100
454458	74798	43.85	0.174824	-100
455308	74834	43.88	0.171986	-100
455797	74833	43.92	0.169762	-100
455749	74850	43.96	0.170442	-100
455847	74834	44.01	0.169565	-100
456166	74843	44.05	0.168379	-100
456387	74814	44.08	0.166595	-100
456753	74796	44.12	0.164463	-100
456830	74790	44.16	0.163954	-100
457504	74838	44.2	0.16225	-100
457969	74839	44.24	0.160199	-100
458036	74867	44.28	0.160665	-100
458310	74863	44.32	0.159332	-100
458154	74817	44.36	0.158771	-100
458389	74796	44.39	0.157147	-100
459391	74876	44.43	0.154867	-100
459908	74885	44.47	0.152811	-100
460215	74857	44.51	0.150681	-100
460203	74876	44.55	0.151253	-100
460668	74869	44.59	0.148996	-100
460685	74864	44.63	0.148784	-100
460936	74850	44.67	0.147286	-100
461206	74867	44.71	0.146553	-100
461123	74860	44.75	0.14673	-100
461339	74831	44.79	0.144979	-100
462465	74841	44.83	0.140264	-100
462198	74821	44.86	0.140899	-100
462426	74828	44.9	0.140081	-100
462780	74846	44.94	0.139008	-100
462953	74839	44.99	0.138052	-100
463362	74849	45.02	0.136518	-100
463221	74863	45.06	0.137524	-100
463551	74830	45.1	0.135164	-100
463764	74812	45.14	0.133732	-100
464300	74827	45.18	0.131779	-100
464771	74844	45.22	0.130169	-100
464451	74837	45.26	0.131387	-100
464333	74840	45.3	0.131989	-100
465093	74848	45.34	0.128861	-100
465632	74829	45.38	0.125972	-100
465744	74811	45.41	0.124988	-100
465913	74824	45.45	0.124601	-100
466181	74839	45.49	0.123834	-100
466843	74837	45.53	0.120876	-100
466903	74839	45.57	0.120668	-100
466525	74816	45.61	0.121696	-100
466763	74831	45.65	0.121063	-100
466790	74815	45.69	0.120507	7
467474	74858	45.73	0.118687	-100
467778	74836	45.77	0.116755	-100
468469	74864	45.81	0.1145	-100
468633	74831	45.85	0.112882	-100
468665	74835	45.89	0.112851	-100
468714	74822	45.93	0.112282	-100
469142	74819	45.96	0.110333	-100
469173	74803	46	0.10976	-100
469246	74793	46.04	0.109168	-100
469767	74820	46.08	0.107636	-100
470011	74832	46.12	0.106901	-100
470312	74841	46.16	0.105838	-100
469980	74815	46.2	0.106572	-100
469811	74814	46.24	0.10728	-100
470499	74832	46.28	0.104778	-100
470743	74803	46.32	0.102924	-100
471392	74811	46.36	0.100324	-100
471718	74825	46.39	0.099292	-100
471619	74845	46.43	0.100269	-100
471959	74847	46.47	0.098849	-100
471623	74837	46.51	0.100033	-100
471747	74837	46.55	0.099495	-100
472084	74829	46.59	0.097815	-100
472078	74834	46.63	0.097978	-100
471932	74797	46.67	0.097599	-100
472426	74789	46.71	0.095239	-100
472790	74808	46.75	0.094183	-100
473069	74818	46.79	0.093249	-100
472674	74826	46.82	0.095177	-100
472731	74834	46.86	0.095149	-100
472490	74787	46.9	0.094907	-100
472131	74787	46.94	0.096462	-100
471877	74799	46.98	0.097892	-100
471707	74816	47.02	0.099094	-100
471494	74847	47.06	0.100866	-100
471278	74849	47.1	0.101858	-100
470176	74814	47.14	0.105691	-100
469150	74804	47.18	0.109887	-100
469114	74826	47.22	0.110646	-100
468192	74803	47.26	0.114042	-100
467645	74796	47.31	0.116243	-100
467046	74825	47.35	0.119659	-100
465524	74805	47.39	0.12579	-100
464759	74813	47.42	0.129374	-100
463508	74816	47.46	0.134971	-100
462429	74819	47.5	0.139822	-100
461145	74813	47.54	0.145347	-100
459514	74799	47.58	0.152214	-100
458878	74851	47.62	0.15647	-100
457844	74838	47.66	0.16073	-100
456244	74796	47.7	0.166744	-100
454676	74797	47.74	0.173816	-100
453246	74804	47.78	0.180453	-100
452266	74798	47.81	0.184717	-100
450941	74785	47.85	0.190365	-100
448213	74802	47.89	0.203246	-100
448261	74828	47.93	0.203738	-100
447202	74780	47.97	0.207264	-100
446335	74762	48.01	0.210742	-100
445108	74802	48.05	0.217469	-100
443253	74772	48.09	0.225194	-100
442086	74759	48.13	0.230232	-100
441730	74781	48.17	0.232482	-100
440788	74783	48.21	0.236905	-100
439912	74799	48.25	0.241413	-100
438678	74768	48.29	0.246313	-100
437966	74781	48.33	0.249992	-100
437508	74768	48.36	0.251777	-100
436740	74795	48.41	0.256111	-100
435616	74814	48.44	0.261903	-100
434879	74796	48.48	0.264876	-100
434649	74788	48.52	0.265739	-100
434345	74798	48.56	0.267444	-100
433449	74779	48.6	0.27115	-100
433300	74816	48.64	0.272865	-100
433240	74819	48.68	0.273231	-100
432839	74826	48.72	0.275317	-100
432415	74809	48.76	0.276857	-100
432831	74888	48.8	0.277049	-100
432690	74833	48.83	0.276213	-100
432297	74790	48.88	0.276896	-100
431929	74724	48.91	0.276832	-100
432131	74768	48.95	0.27708	-100
432563	74769	48.99	0.275063	-100
432262	74751	49.03	0.275994	-100
432104	74761	49.07	0.277016	-100
432824	74782	49.11	0.274184	-100
433116	74763	49.15	0.272284	-100
433606	74727	49.19	0.268985	-100
434100	74736	49.23	0.266902	-100
434417	74762	49.27	0.26612	-100
434914	74757	49.31	0.263644	-100
434640	74732	49.34	0.264249	-100
435118	74736	49.38	0.262109	-100
435857	74750	49.42	0.25902	-100
435955	74698	49.46	0.257137	-100
436544	74731	49.5	0.255278	-100
437029	74748	49.54	0.253471	-100
437963	74730	49.58	0.24861	-100
438895	74743	49.62	0.244617	-100
439323	74740	49.66	0.24254	-100
439890	74789	49.69	0.241242	-100
439693	74746	49.73	0.240982	-100
440347	74727	49.77	0.237421	-100
441051	74732	49.81	0.234289	-100
441700	74737	49.85	0.231417	-100
442504	74755	49.89	0.228189	-100
442994	74748	49.93	0.225733	-100
443134	74698	49.97	0.223717	-100
443773	74739	50.01	0.221891	-100
444003	74721	50.05	0.220338	-100
444590	74722	50.09	0.217663	-100
445351	74719	50.13	0.214081	-100
446202	74719	50.16	0.210175	-100
446707	74733	50.2	0.208244	-100
447109	74731	50.25	0.206349	-100
447280	74711	50.28	0.205019	-100
447642	74710	50.32	0.203336	-100
448458	74724	50.36	0.199993	-100
448489	74707	50.4	0.199386	-100
448931	74721	50.44	0.197754	-100
449385	74706	50.48	0.195275	-100
450013	74702	50.52	0.192308	-100
450913	74735	50.56	0.189124	-100
451290	74722	50.59	0.187058	-100
451506	74718	50.64	0.185969	-100
451681	74711	50.68	0.184984	-100
452388	74730	50.72	0.182304	-100
452620	74701	50.75	0.180461	-100
453085	74707	50.79	0.178525	-100
453487	74684	50.83	0.17608	-100
453872	74696	50.87	0.174672	-100
454334	74691	50.91	0.172454	-100
455250	74748	50.95	0.169893	-100
455503	74784	50.99	0.169742	-100
455515	74733	51.03	0.168292	-100
455827	74704	51.07	0.166097	-100
456818	74732	51.1	0.16242	-100
457032	74711	51.14	0.160887	-100
457200	74732	51.18	0.16071	-100
457256	74721	51.22	0.160158	-100
457430	74706	51.26	0.158969	-100
457916	74700	51.3	0.156632	-100
458538	74734	51.34	0.154785	-100
458766	74753	51.38	0.154288	-100
458639	74724	51.42	0.154061	-100
458763	74706	51.46	0.153015	-100
459568	74687	51.5	0.148907	-100
460232	74721	51.54	0.146884	-100
460272	74713	51.58	0.146487	-100
460091	74707	51.61	0.147128	-100
460540	74730	51.65	0.145762	-100
460921	74743	51.69	0.144426	-100
461320	74757	51.73	0.143039	-100
461252	74731	51.77	0.142628	-100
460894	74721	51.81	0.143943	-100
460642	74690	51.85	0.144213	-100
460398	74682	51.89	0.145078	-100
460024	74708	51.93	0.147453	-100
459616	74692	51.97	0.148831	-100
459162	74692	52.01	0.150853	-100
458860	74701	52.04	0.152445	-100
458389	74713	52.09	0.154875	-100
457927	74754	52.12	0.158061	-100
456933	74730	52.16	0.16185	-100
455750	74740	52.2	0.167428	8
454562	74716	52.24	0.172112	-100
453638	74738	52.28	0.176878	-100
452467	74741	52.32	0.182248	-100
450948	74709	52.36	0.188253	-100
449474	74702	52.4	0.19476	-100
448022	74719	52.44	0.201846	-100
446541	74714	52.48	0.208484	-100
445134	74714	52.52	0.214941	-100
443990	74740	52.55	0.220919	-100
442746	74770	52.59	0.227481	-100
440780	74724	52.63	0.235327	-100
439205	74723	52.67	0.242624	-100
437905	74748	52.71	0.249374	-100
436725	74781	52.75	0.255798	-100
435065	74756	52.79	0.262906	-100
433352	74763	52.83	0.27117	-100
431536	74724	52.87	0.278695	-100
430349	74742	52.91	0.284823	-100
429009	74721	52.95	0.290629	-100
427716	74757	52.99	0.297791	-100
426134	74740	53.02	0.304908	-100
424650	74712	53.06	0.311279	-100
423734	74730	53.1	0.31619	-100
422660	74728	53.14	0.321328	-100
421703	74747	53.18	0.326486	-100
420456	74720	53.22	0.331807	-100
419658	74729	53.26	0.33594	-100
418992	74739	53.3	0.339464	-100
418042	74732	53.34	0.343917	-100
417180	74738	53.38	0.348304	-100
416322	74738	53.42	0.352517	-100
415807	74732	53.46	0.354885	-100
415416	74733	53.49	0.356837	-100
415167	74753	53.53	0.358612	-100
414909	74754	53.57	0.359911	-100
414845	74760	53.61	0.360391	-100
414878	74770	53.65	0.360502	-100
414585	74724	53.69	0.360688	-100
414420	74724	53.74	0.361503	-100
414531	74746	53.78	0.361557	-100
414811	74731	53.82	0.359765	-100
415061	74739	53.86	0.358751	-100
415169	74739	53.9	0.358219	-100
415527	74751	53.94	0.356784	-100
415907	74755	53.98	0.355023	-100
416346	74769	54.02	0.353247	-100
416800	74786	54.06	0.351482	-100
416828	74757	54.09	0.350551	-100
417180	74728	54.13	0.34803	-100
418041	74748	54.17	0.344359	-100
418635	74769	54.21	0.342029	-100
418961	74727	54.25	0.339287	-100
419594	74776	54.29	0.337539	-100
420252	74762	54.33	0.333949	-100
421079	74739	54.37	0.329297	-100
421761	74756	54.41	0.326451	-100
422323	74739	54.45	0.323261	-100
422848	74734	54.49	0.320582	-100
423695	74727	54.52	0.316296	-100
424750	74719	54.56	0.310989	-100
425760	74729	54.61	0.306403	-100
426416	74750	54.64	0.303828	-100
426991	74748	54.68	0.301016	-100
427831	74761	54.72	0.29735	-100
428660	74733	54.76	0.292623	-100
429613	74750	54.8	0.288545	-100
430025	74743	54.84	0.286392	-100
430491	74719	54.88	0.283518	-100
431447	74738	54.92	0.2795	-100
432440	74764	54.95	0.275508	-100
433314	74782	54.99	0.271869	-100
433738	74781	55.03	0.269841	-100
434089	74779	55.07	0.268131	-100
435028	74777	55.11	0.263655	-100
435957	74781	55.15	0.259399	-100
436387	74766	55.19	0.256972	-100
436772	74792	55.23	0.255879	-100
437279	74783	55.27	0.253259	-100
437996	74763	55.31	0.249359	-100
439073	74755	55.35	0.244115	-100
439976	74765	55.39	0.240185	-100
440285	74790	55.43	0.239433	-100
440700	74764	55.47	0.236794	-100
441238	74758	55.5	0.234133	-100
442476	74748	55.54	0.228127	-100
443477	74779	55.58	0.224351	-100
443387	74751	55.62	0.224	-100
443422	74738	55.66	0.223483	-100
444031	74741	55.7	0.220757	-100
444750	74778	55.74	0.218459	-100
445018	74766	55.78	0.216898	-100
444610	74712	55.82	0.217297	-100
445154	74761	55.86	0.216136	-100
445713	74802	55.89	0.21469	-100
445819	74750	55.94	0.212781	-100
446013	74757	55.97	0.212082	-100
445853	74767	56.01	0.21309	-100
445936	74752	56.05	0.212299	-100
445882	74741	56.09	0.212245	-100
445953	74759	56.13	0.212412	-100
445759	74735	56.17	0.212646	-100
445360	74752	56.21	0.214943	-100
445062	74783	56.25	0.217161	-100
444718	74736	56.29	0.217457	-100
444564	74781	56.33	0.219397	-100
443744	74785	56.36	0.223284	-100
442857	74752	56.4	0.226475	-100
442245	74743	56.44	0.229058	-100
441677	74738	56.49	0.231551	-100
440901	74755	56.52	0.235614	-100
439320	74757	56.56	0.243019	-100
438013	74760	56.6	0.249198	-100
437073	74745	56.64	0.253183	-100
435935	74738	56.68	0.258326	-100
434703	74760	56.72	0.264719	-100
433182	74789	56.76	0.272684	-100
431716	74777	56.8	0.279292	-100
430361	74767	56.84	0.28545	-100
429170	74776	56.88	0.291367	-100
428168	74846	56.92	0.298064	-100
426799	74892	56.96	0.305874	-100
424848	74759	56.99	0.311612	-100
423573	74740	57.03	0.317242	-100
422360	74765	57.07	0.323794	-100
420902	74762	57.11	0.330787	-100
419538	74759	57.15	0.337347	-100
418463	74757	57.19	0.342541	-100
417444	74773	57.23	0.347968	-100
416088	74747	57.27	0.353913	-100
415533	74776	57.31	0.357438	-100
414776	74760	57.35	0.360731	-100
413878	74753	57.38	0.364974	-100
413312	74760	57.42	0.367966	-100
412715	74751	57.46	0.370677	-100
412060	74752	57.5	0.373954	-100
411393	74738	57.54	0.376886	-100
410900	74740	57.58	0.379394	-100
410825	74754	57.62	0.380151	-100
410669	74752	57.66	0.380873	-100
410305	74766	57.7	0.383071	-100
410198	74796	57.74	0.384425	-100
409813	74763	57.78	0.385444	-100
409796	74745	57.82	0.385036	-100
409740	74724	57.86	0.384741	-100
409601	74730	57.89	0.385599	-100
409841	74712	57.93	0.383908	-100
410327	74745	57.97	0.382386	-100
410373	74713	58.01	0.381281	-100
410741	74727	58.05	0.37983	-100
410994	74735	58.09	0.378789	-100
411257	74724	58.13	0.377179	-100
412023	74747	58.17	0.374001	-100
412768	74736	58.21	0.370004	-100
413736	74779	58.25	0.366388	-100
414079	74772	58.29	0.364501	-100
414531	74760	58.33	0.36194	-100
415289	74737	58.36	0.357573	-100
416087	74698	58.4	0.352577	-100
416917	74702	58.44	0.348609	-100
417516	74714	58.48	0.346	-100
418075	74728	58.52	0.343645	-100
419079	74739	58.56	0.339039	-100
419865	74716	58.6	0.334575	-100
420761	74759	58.64	0.331391	-100
421297	74751	58.68	0.328567	-100
422007	74762	58.72	0.325422	9
422883	74740	58.76	0.320577	-100
423588	74701	58.8	0.316101	-100
424548	74766	58.83	0.313249	-100
425088	74775	58.87	0.310894	-100
425780	74761	58.91	0.307183	-100
426408	74729	58.95	0.303291	-100
427286	74753	58.99	0.29974	-100
427783	74748	59.03	0.297224	-100
428313	74757	59.07	0.294937	-100
429499	74759	59.11	0.289334	-100
430712	74792	59.15	0.284466	-100
430805	74754	59.18	0.282985	-100
431079	74761	59.23	0.281875	-100
431752	74763	59.26	0.278738	-100
432455	74753	59.3	0.275136	-100
433116	74763	59.34	0.272284	-100
433480	74743	59.38	0.270018	-100
433963	74780	59.42	0.268752	-100
434455	74760	59.46	0.265886	-100
434788	74749	59.5	0.264018	-100
434818	74735	59.54	0.263493	-100
434777	74743	59.58	0.263905	-100
434702	74734	59.62	0.264012	-100
435368	74776	59.66	0.262029	-100
435513	74770	59.7	0.261183	-100
435442	74773	59.73	0.261599	-100
435036	74747	59.77	0.262796	-100
434741	74741	59.81	0.26402	-100
434878	74761	59.85	0.263923	-100
434612	74751	59.89	0.264901	-100
434225	74758	59.93	0.266915	-100
433819	74789	59.97	0.269677	-100
433435	74787	60.01	0.271435	-100
432928	74736	60.05	0.272434	-100
432453	74728	60.09	0.274461	-100
431890	74724	60.13	0.277017	-100
431086	74724	60.17	0.280829	-100
430224	74738	60.21	0.285308	-100
429409	74718	60.25	0.28864	-100
428757	74724	60.29	0.291914	-100
427884	74716	60.33	0.295865	-100
426839	74717	60.37	0.300896	-100
425857	74726	60.41	0.305855	-100
424758	74704	60.44	0.31054	-100
424030	74709	60.48	0.314186	-100
423472	74747	60.52	0.317921	-100
422939	74862	60.56	0.323644	-100
421952	74849	60.6	0.328069	-100
420468	74740	60.64	0.332296	-100
419683	74708	60.68	0.335243	-100
419028	74700	60.72	0.33822	-100
418388	74738	60.76	0.342388	-100
417668	74739	60.8	0.34594	-100
416953	74729	60.84	0.349171	-100
416303	74725	60.88	0.352254	-100
415741	74731	60.92	0.355183	-100
415225	74733	60.96	0.357778	-100
414806	74713	60.99	0.359296	-100
414754	74730	61.03	0.360019	-100
414771	74750	61.07	0.360482	-100
414372	74733	61.11	0.361986	-100
413866	74727	61.15	0.364322	-100
413840	74749	61.19	0.365053	-100
413849	74724	61.23	0.364324	-100
414028	74732	61.27	0.363658	-100
413695	74711	61.31	0.364729	-100
413801	74727	61.35	0.364643	-100
414227	74757	61.39	0.363359	-100
414253	74755	61.43	0.363176	-100
414404	74709	61.47	0.361171	-100
414531	74719	61.5	0.360818	-100
414953	74743	61.54	0.359393	-100
415415	74728	61.58	0.356705	-100
416349	74755	61.62	0.352849	-100
416920	74770	61.66	0.350456	-100
416920	74732	61.7	0.349416	-100
417636	74778	61.74	0.347164	-100
418256	74784	61.78	0.344293	-100
418580	74733	61.82	0.341312	-100
418902	74708	61.86	0.339054	-100
419458	74741	61.9	0.337244	-100
420357	74747	61.94	0.333028	-100
421698	74724	61.97	0.325881	-100
422431	74689	62.01	0.321369	-100
422854	74721	62.05	0.320197	-100
422989	74704	62.09	0.319079	-100
423872	74702	62.13	0.314757	-100
424795	74714	62.17	0.310635	-100
425259	74721	62.21	0.308593	-100
425728	74757	62.25	0.307323	-100
426168	74694	62.29	0.303485	-100
427353	74687	62.33	0.297611	-100
428042	74689	62.36	0.29437	-100
428056	74717	62.4	0.29507	-100
428165	74760	62.45	0.295726	-100
428438	74697	62.48	0.292697	-100
429278	74700	62.52	0.288772	-100
429862	74717	62.56	0.286456	-100
430031	74744	62.6	0.286391	-100
430100	74749	62.64	0.286199	-100
430585	74728	62.68	0.283318	-100
431171	74722	62.72	0.280371	-100
430928	74724	62.76	0.281579	-100
430680	74736	62.79	0.283086	-100
431011	74779	62.84	0.282691	-100
431604	74774	62.87	0.279741	-100
431770	74769	62.91	0.278817	-100
431701	74743	62.95	0.278433	-100
431706	74744	62.99	0.278436	-100
431141	74714	63.03	0.280294	-100
430862	74745	63.07	0.282468	-100
430443	74729	63.11	0.28402	-100
430026	74724	63.15	0.285867	-100
429485	74730	63.19	0.288607	-100
428730	74722	63.23	0.291988	-100
428367	74723	63.27	0.293748	-100
427934	74697	63.31	0.295106	-100
427204	74709	63.35	0.298928	-100
426111	74687	63.38	0.303567	-100
425336	74659	63.42	0.306524	-100
425292	74674	63.46	0.307147	-100
425193	74705	63.5	0.308473	-100
425048	74716	63.54	0.309472	-100
424184	74685	63.58	0.312786	-100
423651	74680	63.62	0.315222	-100
423527	74703	63.66	0.316451	-100
422982	74709	63.7	0.31925	-100
422686	74733	63.74	0.321339	-100
422204	74719	63.78	0.32329	-100
421854	74701	63.81	0.324494	-100
421854	74734	63.85	0.325398	-100
421960	74735	63.89	0.324911	-100
422026	74735	63.93	0.324591	-100
421762	74718	63.97	0.325406	-100
421115	74722	64.01	0.328657	-100
420860	74719	64.05	0.329814	-100
421074	74736	64.09	0.329239	-100
420992	74734	64.13	0.329583	-100
420426	74736	64.17	0.332391	-100
420408	74748	64.2	0.332807	-100
420597	74730	64.25	0.331394	-100
420809	74729	64.29	0.330336	-100
420881	74749	64.32	0.330533	-100
420718	74756	64.36	0.331518	-100
421157	74757	64.4	0.329411	-100
421653	74747	64.44	0.326729	-100
422102	74724	64.48	0.323922	-100
422585	74734	64.52	0.321855	-100
422702	74732	64.56	0.321234	-100
423043	74732	64.6	0.319584	-100
423384	74751	64.64	0.318456	-100
423810	74765	64.68	0.316781	-100
423979	74730	64.72	0.315007	-100
424325	74755	64.76	0.314023	-100
425238	74774	64.79	0.310145	-100
426428	74794	64.83	0.304974	-100
426963	74781	64.87	0.302053	-100
427236	74780	64.91	0.300718	-100
427755	74792	64.95	0.298562	-100
428139	74741	64.99	0.29533	-100
428559	74715	65.03	0.292612	-100
429005	74744	65.07	0.291278	-100
428947	74732	65.11	0.291226	-100
429074	74746	65.14	0.291004	-100
430044	74764	65.18	0.286876	-100
430124	74780	65.22	0.286933	10
429587	74733	65.27	0.288203	-100
429401	74734	65.3	0.289117	-100
429639	74705	65.34	0.287189	-100
430380	74759	65.38	0.285141	-100
430435	74773	65.42	0.285263	-100
430042	74746	65.46	0.286393	-100
430106	74765	65.5	0.286608	-100
430752	74789	65.54	0.284194	-100
430515	74732	65.58	0.28376	-100
430134	74743	65.62	0.285873	-100
429899	74733	65.66	0.286718	-100
429928	74751	65.7	0.287072	-100
429816	74715	65.73	0.28662	-100
429786	74719	65.77	0.286872	-100
429610	74713	65.81	0.287546	-100
429593	74738	65.85	0.288311	-100
429168	74748	65.89	0.29061	-100
428706	74724	65.93	0.292157	-100
428396	74721	65.97	0.293555	-100
428054	74728	66.01	0.295381	-100
427472	74730	66.05	0.298219	-100
427287	74777	66.09	0.300392	-100
426853	74778	66.13	0.302498	-100
426178	74714	66.17	0.303984	-100
425472	74706	66.2	0.307158	-100
424989	74744	66.24	0.310522	-100
425245	74761	66.28	0.309756	-100
425642	74783	66.32	0.308448	-100
425642	74755	66.36	0.307682	-100
425699	74778	66.4	0.308037	-100
425174	74761	66.44	0.310097	-100
425209	74788	66.48	0.310668	-100
424630	74732	66.52	0.311923	-100
424374	74730	66.56	0.313102	-100
424559	74754	66.59	0.312867	-100
424651	74741	66.63	0.312068	-100
424939	74750	66.68	0.310927	-100
425472	74762	66.71	0.308691	-100
426104	74782	66.76	0.306201	-100
426475	74784	66.8	0.304475	-100
426081	74753	66.84	0.305518	-100
426156	74753	66.88	0.305158	-100
426411	74759	66.92	0.304098	-100
426503	74726	66.96	0.302753	-100
426877	74790	66.99	0.302712	-100
426890	74793	67.03	0.302731	-100
426762	74747	67.07	0.302086	-100
427194	74751	67.12	0.300125	-100
427412	74757	67.15	0.299246	-100
427432	74747	67.19	0.298876	-100
427683	74749	67.23	0.29773	-100
427793	74736	67.27	0.296848	-100
428633	74747	67.31	0.293135	-100
429118	74730	67.35	0.290356	-100
429556	74766	67.39	0.289254	-100
429831	74768	67.43	0.287999	-100
429782	74740	67.47	0.287466	-100
430189	74759	67.51	0.286049	-100
430395	74759	67.55	0.28507	-100
430434	74750	67.58	0.284638	-100
430556	74740	67.62	0.283785	-100
431046	74737	67.66	0.281375	-100
431691	74779	67.7	0.279465	-100
431653	74764	67.74	0.279235	-100
431622	74769	67.78	0.279519	-100
431627	74753	67.82	0.279057	-100
431961	74779	67.86	0.278186	-100
431941	74776	67.9	0.278199	-100
431634	74753	67.94	0.279024	-100
431396	74744	67.97	0.279906	-100
431362	74718	68.02	0.279355	-100
431093	74703	68.05	0.280221	-100
430713	74690	68.09	0.281669	-100
430591	74723	68.13	0.283153	-100
430442	74753	68.17	0.284682	-100
430623	74788	68.21	0.28478	-100
430570	74760	68.25	0.284265	-100
430264	74745	68.29	0.28531	-100
430053	74755	68.33	0.286587	-100
429804	74741	68.37	0.287389	-100
429845	74746	68.4	0.28733	-100
429599	74746	68.45	0.288502	-100
429480	74736	68.48	0.288795	-100
429471	74742	68.52	0.289002	-100
429436	74763	68.56	0.289744	-100
429320	74732	68.6	0.289448	-100
429460	74732	68.64	0.288781	-100
429755	74744	68.68	0.287704	-100
429687	74738	68.72	0.287864	-100
429386	74721	68.76	0.288832	-100
429502	74739	68.8	0.288772	-100
429371	74700	68.84	0.288328	-100
429599	74724	68.88	0.287899	-100
429662	74741	68.92	0.288065	-100
429825	74764	68.96	0.287918	-100
429466	74723	68.99	0.288506	-100
429486	74709	69.03	0.288027	-100
429457	74719	69.07	0.288439	-100
429386	74737	69.11	0.28927	-100
429680	74748	69.15	0.288171	-100
430017	74759	69.19	0.286868	-100
430207	74730	69.23	0.28517	-100
430264	74721	69.27	0.284652	-100
430927	74844	69.31	0.284867	-100
431367	74880	69.35	0.283763	-100
430673	74778	69.39	0.284269	-100
430492	74709	69.42	0.28324	-100
431084	74740	69.46	0.281277	-100
431295	74757	69.5	0.280741	-100
431218	74730	69.54	0.280367	-100
431674	74765	69.58	0.279163	-100
431987	74759	69.62	0.277515	-100
432190	74753	69.66	0.27639	-100
431964	74722	69.7	0.276611	-100
431943	74743	69.74	0.277286	-100
431827	74735	69.77	0.277616	-100
431715	74715	69.82	0.2776	-100
431768	74729	69.85	0.277732	-100
431735	74748	69.9	0.278408	-100
431755	74779	69.93	0.279162	-100
431337	74744	69.97	0.280186	-100
431201	74747	70.01	0.280913	-100
430887	74721	70.05	0.281692	-100
430912	74749	70.09	0.28234	-100
430930	74769	70.13	0.282802	-100
430898	74779	70.17	0.283227	-100
430849	74787	70.21	0.283679	-100
430694	74789	70.25	0.28447	-100
430541	74783	70.29	0.285033	-100
430302	74763	70.33	0.285622	-100
430004	74742	70.37	0.286464	-100
430042	74755	70.4	0.286639	-100
429911	74739	70.44	0.286825	-100
430707	74902	70.48	0.287497	-100
430895	74917	70.52	0.287014	-100
430790	74876	70.56	0.286393	-100
430186	74774	70.6	0.286474	-100
430021	74756	70.64	0.286767	-100
429910	74752	70.68	0.287185	-100
429991	74750	70.72	0.286745	-100
429904	74723	70.76	0.28642	-100
430137	74767	70.8	0.286516	-100
430214	74783	70.84	0.286587	-100
430180	74751	70.88	0.285873	-100
430393	74769	70.91	0.285353	-100
430270	74766	70.95	0.285856	-100
430269	74773	70.99	0.286052	-100
430337	74771	71.03	0.285674	-100
430385	74762	71.07	0.2852	-100
430693	74798	71.11	0.284721	-100
430609	74776	71.15	0.284518	-100
430508	74754	71.19	0.284396	-100
430492	74749	71.22	0.284335	-100
430393	74720	71.26	0.284012	-100
430459	74729	71.31	0.283944	-100
430386	74743	71.35	0.284675	-100
430195	74723	71.38	0.285035	-100
430465	74753	71.42	0.284573	-100
430660	74765	71.46	0.283975	-100
430556	74748	71.5	0.284004	-100
430676	74780	71.54	0.284309	-100
430473	74755	71.58	0.28459	-100
431091	74889	71.62	0.285319	-100
430855	74874	71.66	0.286029	-100
430073	74769	71.7	0.286875	-100
429621	74712	71.73	0.287466	11
429588	74740	71.77	0.28839	-100
429442	74744	71.81	0.289195	-100
429417	74765	71.85	0.289889	-100
429129	74769	71.89	0.291371	-100
428867	74776	71.93	0.292812	-100
428536	74753	71.97	0.293763	-100
427447	74737	72.01	0.298531	-100
428044	74716	72.05	0.2951	-100
428029	74739	72.09	0.295801	-100
427831	74743	72.13	0.296858	-100
427820	74777	72.16	0.297841	-100
427606	74756	72.2	0.29829	-100
427497	74759	72.24	0.298894	-100
427359	74767	72.29	0.299773	-100
427234	74751	72.32	0.299934	-100
427112	74723	72.36	0.299752	-100
427116	74763	72.4	0.300828	-100
427113	74732	72.44	0.299993	-100
427113	74723	72.48	0.299747	-100
427102	74746	72.52	0.300429	-100
427299	74781	72.56	0.300444	-100
427111	74759	72.6	0.300742	-100
427086	74764	72.64	0.300999	-100
426968	74748	72.68	0.301126	-100
427130	74791	72.72	0.301527	-100
426949	74775	72.76	0.301956	-100
426875	74767	72.79	0.302092	-100
426786	74760	72.83	0.302327	-100
426471	74728	72.87	0.302962	-100
426326	74731	72.91	0.30374	-100
426237	74735	72.95	0.304276	-100
426347	74767	72.99	0.304624	-100
426206	74755	73.03	0.304973	-100
426068	74753	73.07	0.30558	-100
426017	74781	73.1	0.306592	-100
425850	74777	73.15	0.307284	-100
425637	74775	73.19	0.308253	-100
425477	74783	73.22	0.309242	-100
425148	74752	73.27	0.309976	-100
424745	74729	73.31	0.311287	-100
424713	74744	73.35	0.311852	-100
424766	74751	73.39	0.311788	-100
424754	74772	73.43	0.31242	-100
424417	74753	73.47	0.313524	-100
424273	74745	73.51	0.314	-100
424325	74776	73.55	0.314597	-100
424149	74762	73.58	0.315063	-100
424008	74762	73.63	0.315744	-100
423839	74755	73.66	0.316368	-100
423833	74763	73.7	0.316616	-100
423813	74750	73.74	0.316356	-100
423855	74781	73.78	0.317002	-100
423497	74750	73.82	0.317882	-100
423473	74756	73.86	0.318163	-100
423410	74743	73.9	0.318111	-100
423519	74760	73.94	0.31805	-100
423455	74743	73.98	0.317894	-100
423389	74751	74.02	0.318432	-100
423301	74753	74.06	0.318912	-100
423407	74770	74.09	0.318865	-100
423383	74773	74.13	0.319063	-100
423172	74773	74.17	0.320083	-100
422940	74754	74.21	0.320685	-100
423063	74782	74.25	0.320856	-100
423102	74785	74.29	0.32075	-100
422814	74741	74.33	0.320939	-100
421977	74767	74.37	0.325705	-100
422141	74762	74.41	0.324773	-100
422639	74782	74.45	0.322908	-100
422351	74751	74.48	0.323454	-100
422135	74755	74.53	0.32461	-100
421801	74715	74.57	0.325135	-100
421906	74759	74.61	0.32583	-100
421569	74742	74.64	0.327	-100
421523	74727	74.68	0.326812	-100
421601	74747	74.72	0.326981	-100
421478	74754	74.76	0.32777	-100
421393	74752	74.8	0.328128	-100
421557	74780	74.84	0.328098	-100
421324	74747	74.88	0.328326	-100
421276	74718	74.92	0.327765	-100
421478	74752	74.96	0.327715	-100
421459	74769	75	0.328273	-100
421319	74738	75.03	0.328104	-100
421289	74753	75.07	0.32866	-100
421141	74740	75.11	0.329023	-100
421095	74727	75.15	0.328891	-100
421087	74719	75.19	0.328711	-100
421222	74734	75.23	0.328466	-100
421298	74735	75.27	0.328124	-100
421430	74753	75.31	0.327976	-100
421530	74773	75.35	0.328038	-100
421238	74792	75.39	0.329975	-100
421315	74769	75.43	0.328972	-100
421182	74757	75.47	0.32929	-100
421013	74743	75.5	0.329728	-100
421159	74786	75.54	0.330195	-100
420978	74762	75.58	0.330418	-100
421138	74779	75.62	0.330105	-100
421314	74787	75.66	0.329469	-100
421203	74786	75.7	0.329981	-100
421177	74782	75.74	0.329998	-100
421187	74765	75.78	0.329484	-100
421123	74743	75.82	0.329193	-100
421263	74735	75.86	0.328294	-100
421416	74763	75.9	0.328317	-100
421434	74762	75.94	0.328203	-100
421427	74763	75.98	0.328264	-100
421480	74767	76.01	0.328116	-100
421256	74729	76.05	0.328164	-100
421328	74732	76.09	0.327896	-100
421138	74734	76.13	0.328874	-100
421496	74760	76.17	0.327847	-100
421749	74761	76.21	0.326646	-100
421900	74743	76.25	0.325421	12
421864	74744	76.29	0.325623	-100
421848	74731	76.32	0.325345	-100
421771	74724	76.36	0.325527	-100
421992	74754	76.41	0.325276	-100
422089	74763	76.44	0.325052	-100
421931	74734	76.49	0.325025	-100
421886	74720	76.52	0.324859	-100
422315	74755	76.56	0.323738	-100
422552	74754	76.6	0.322563	-100
422333	74742	76.64	0.323295	-100
422346	74742	76.68	0.323232	-100
422606	74775	76.72	0.322876	-100
422704	74751	76.76	0.321745	-100
422878	74762	76.8	0.321204	-100
422818	74738	76.84	0.320837	-100
423167	74768	76.88	0.31997	-100
423230	74779	76.91	0.319967	-100
423253	74744	76.95	0.318897	-100
423083	74713	77	0.318871	-100
423114	74735	77.03	0.319323	-100
423186	74711	77.07	0.318318	-100
423542	74736	77.11	0.317282	-100
424091	74779	77.15	0.315808	-100
423891	74736	77.19	0.315597	-100
424218	74774	77.23	0.315059	-100
424209	74738	77.27	0.314117	-100
424418	74755	77.31	0.313574	-100
424298	74730	77.34	0.313469	-100
424500	74773	77.38	0.313672	-100
424544	74765	77.43	0.313241	-100
424644	74772	77.46	0.31295	-100
424494	74744	77.5	0.312907	-100
424680	74761	77.54	0.312476	-100
424607	74775	77.58	0.313211	-100
424695	74761	77.62	0.312404	-100
424621	74742	77.66	0.31224	-100
424628	74760	77.7	0.312699	-100
424435	74732	77.74	0.312863	-100
424628	74760	79.84	0.312699	13